 splib07a Record=88: Wavelengths AVIRIS 1996 0.37-2.5 microns
 3.7049001e-001
 3.8021001e-001
 3.8993001e-001
 3.9967003e-001
 4.0942001e-001
 4.1918999e-001
 4.2897001e-001
 4.3875998e-001
 4.4854999e-001
 4.5835999e-001
 4.6817997e-001
 4.7799999e-001
 4.8784003e-001
 4.9768001e-001
 5.0753003e-001
 5.1738000e-001
 5.2723998e-001
 5.3710002e-001
 5.4696000e-001
 5.5682999e-001
 5.6671000e-001
 5.7657999e-001
 5.8644998e-001
 5.9632999e-001
 6.0619998e-001
 6.1607999e-001
 6.2594998e-001
 6.3582003e-001
 6.4569002e-001
 6.5556008e-001
 6.6542006e-001
 6.7526996e-001
 6.6602004e-001
 6.7561001e-001
 6.8519002e-001
 6.9478005e-001
 7.0436996e-001
 7.1395999e-001
 7.2355002e-001
 7.3313999e-001
 7.4272996e-001
 7.5231999e-001
 7.6190996e-001
 7.7151000e-001
 7.8109998e-001
 7.9069996e-001
 8.0028999e-001
 8.0989003e-001
 8.1948000e-001
 8.2907999e-001
 8.3867997e-001
 8.4828001e-001
 8.5788006e-001
 8.6748004e-001
 8.7708002e-001
 8.8667995e-001
 8.9628994e-001
 9.0588999e-001
 9.1548997e-001
 9.2509997e-001
 9.3469995e-001
 9.4431001e-001
 9.5392001e-001
 9.6352005e-001
 9.7312999e-001
 9.8273993e-001
 9.9234998e-001
 1.0019600e+000
 1.0115700e+000
 1.0211900e+000
 1.0308000e+000
 1.0404099e+000
 1.0500300e+000
 1.0596399e+000
 1.0692599e+000
 1.0788701e+000
 1.0884900e+000
 1.0981101e+000
 1.1077300e+000
 1.1173500e+000
 1.1269701e+000
 1.1365900e+000
 1.1462101e+000
 1.1558300e+000
 1.1654499e+000
 1.1750801e+000
 1.1847000e+000
 1.1943301e+000
 1.2039500e+000
 1.2135800e+000
 1.2232101e+000
 1.2328300e+000
 1.2424599e+000
 1.2520900e+000
 1.2617201e+000
 1.2713501e+000
 1.2542499e+000
 1.2642200e+000
 1.2741901e+000
 1.2841600e+000
 1.2941301e+000
 1.3040999e+000
 1.3140699e+000
 1.3240399e+000
 1.3339999e+000
 1.3439699e+000
 1.3539400e+000
 1.3638999e+000
 1.3738700e+000
 1.3838301e+000
 1.3938000e+000
 1.4037600e+000
 1.4137200e+000
 1.4236900e+000
 1.4336499e+000
 1.4436100e+000
 1.4535699e+000
 1.4635299e+000
 1.4734900e+000
 1.4834499e+000
 1.4934100e+000
 1.5033700e+000
 1.5133201e+000
 1.5232800e+000
 1.5332401e+000
 1.5431900e+000
 1.5531499e+000
 1.5631000e+000
 1.5730500e+000
 1.5830101e+000
 1.5929600e+000
 1.6029100e+000
 1.6128600e+000
 1.6228100e+000
 1.6327599e+000
 1.6427100e+000
 1.6526599e+000
 1.6626099e+000
 1.6725600e+000
 1.6825100e+000
 1.6924599e+000
 1.7024000e+000
 1.7123500e+000
 1.7222900e+000
 1.7322401e+000
 1.7421800e+000
 1.7521200e+000
 1.7620699e+000
 1.7720101e+000
 1.7819501e+000
 1.7918901e+000
 1.8018301e+000
 1.8117700e+000
 1.8217100e+000
 1.8316499e+000
 1.8415899e+000
 1.8515300e+000
 1.8614699e+000
 1.8714000e+000
 1.8813401e+000
 1.8791300e+000
 1.8891799e+000
 1.8992300e+000
 1.9092799e+000
 1.9193200e+000
 1.9293699e+000
 1.9394099e+000
 1.9494399e+000
 1.9594798e+000
 1.9695098e+000
 1.9795400e+000
 1.9895699e+000
 1.9995999e+000
 2.0096202e+000
 2.0196402e+000
 2.0296602e+000
 2.0396702e+000
 2.0496900e+000
 2.0597000e+000
 2.0697000e+000
 2.0797100e+000
 2.0897100e+000
 2.0997100e+000
 2.1097100e+000
 2.1197100e+000
 2.1296999e+000
 2.1396899e+000
 2.1496801e+000
 2.1596601e+000
 2.1696501e+000
 2.1796300e+000
 2.1896100e+000
 2.1995800e+000
 2.2095501e+000
 2.2195201e+000
 2.2294900e+000
 2.2394602e+000
 2.2494202e+000
 2.2593801e+000
 2.2693400e+000
 2.2793000e+000
 2.2892501e+000
 2.2992001e+000
 2.3091500e+000
 2.3190899e+000
 2.3290401e+000
 2.3389800e+000
 2.3489199e+000
 2.3588498e+000
 2.3687799e+000
 2.3787098e+000
 2.3886399e+000
 2.3985698e+000
 2.4084899e+000
 2.4184101e+000
 2.4283299e+000
 2.4382501e+000
 2.4481599e+000
 2.4580700e+000
 2.4679801e+000
 2.4778800e+000
 2.4877899e+000
 2.4976900e+000
 2.5075898e+000
